#perpendicular_0G_1
#T(K)        U(V)
94,984	0,705
95,030	0,705
95,128	0,705
95,201	0,706
95,275	0,706
95,346	0,706
95,421	0,706
95,494	0,705
95,566	0,705
95,640	0,706
95,712	0,705
95,783	0,705
95,855	0,705
95,926	0,706
95,998	0,706
96,068	0,707
96,141	0,707
96,211	0,707
96,283	0,706
96,329	0,706
96,424	0,707
96,496	0,706
96,568	0,707
96,639	0,707
96,710	0,708
96,783	0,708
96,854	0,708
96,902	0,708
96,974	0,708
97,068	0,707
97,141	0,708
97,211	0,709
97,283	0,709
97,354	0,709
97,425	0,709
97,470	0,707
97,541	0,708
97,635	0,708
97,701	0,710
97,778	0,711
97,847	0,711
97,918	0,711
97,990	0,710
98,060	0,708
98,131	0,708
98,202	0,708
98,274	0,709
98,344	0,711
98,389	0,713
98,483	0,713
98,555	0,714
98,626	0,714
98,698	0,714
98,768	0,715
98,838	0,717
98,910	0,717
98,957	0,718
99,026	0,718
99,094	0,717
99,164	0,718
99,234	0,719
99,327	0,720
99,396	0,720
99,467	0,721
99,536	0,722
99,607	0,723
99,676	0,721
99,744	0,720
99,814	0,720
99,859	0,721
99,952	0,720
100,021	0,720
100,065	0,720
100,133	0,720
100,226	0,721
100,296	0,720
100,366	0,721
100,433	0,721
100,502	0,722
100,572	0,724
100,643	0,725
100,688	0,726
100,756	0,726
100,824	0,727
100,893	0,728
100,961	0,728
101,055	0,728
101,123	0,727
101,190	0,726
101,259	0,728
101,327	0,727
101,396	0,727
101,442	0,726
101,532	0,726
101,604	0,726
101,673	0,726
101,740	0,727
101,809	0,727
101,851	0,729
101,947	0,729
102,015	0,730
102,085	0,730
102,155	0,731
102,223	0,731
102,292	0,732
102,361	0,732
102,429	0,733
102,496	0,733
102,542	0,734
102,634	0,733
102,680	0,733
102,772	0,733
102,839	0,733
102,908	0,733
102,976	0,734
103,042	0,734
103,106	0,734
103,176	0,735
103,219	0,735
103,309	0,735
103,352	0,736
103,441	0,736
103,509	0,736
103,575	0,737
103,641	0,737
103,708	0,737
103,772	0,737
103,840	0,737
103,906	0,738
103,973	0,738
104,039	0,738
104,106	0,738
104,151	0,736
104,216	0,736
104,305	0,736
104,371	0,736
104,413	0,735
104,478	0,735
104,566	0,735
104,632	0,735
104,698	0,734
104,763	0,734
104,829	0,734
104,892	0,734
104,958	0,734
105,023	0,734
105,090	0,734
105,153	0,734
105,218	0,734
105,283	0,733
105,348	0,733
105,411	0,733
105,476	0,732
105,554	0,732
105,684	0,731
105,881	0,730
106,051	0,730
106,376	0,731
106,791	0,731
107,268	0,731
107,834	0,731
108,657	0,731
109,322	0,731
110,026	0,731
110,771	0,730
111,540	0,730
112,326	0,730
112,846	0,729
113,645	0,729
114,469	0,729
115,309	0,728
116,162	0,728
117,278	0,728
118,141	0,727
119,004	0,727
119,836	0,727
120,679	0,727
121,507	0,726
122,346	0,726
123,206	0,726
124,035	0,726
124,884	0,725
125,696	0,725
126,519	0,724
127,041	0,724
128,128	0,723
128,921	0,723
129,710	0,723
130,493	0,723
131,270	0,722
131,774	0,722
132,832	0,721
133,614	0,719
134,386	0,719
135,152	0,719
135,898	0,719
136,397	0,718
137,407	0,717
138,159	0,715
138,917	0,715
139,645	0,714
140,370	0,714
141,092	0,713
141,822	0,712
142,534	0,711
143,265	0,711
143,968	0,711
144,669	0,711
145,375	0,710
146,079	0,710
146,552	0,710
147,248	0,710
148,165	0,709
148,605	0,708
149,523	0,708
149,956	0,707
150,857	0,707
151,514	0,706
152,180	0,706
152,834	0,707
153,479	0,706
154,130	0,706
154,777	0,706
155,419	0,707
156,053	0,706
156,675	0,706
157,079	0,706
157,918	0,707
158,538	0,706
159,155	0,706
159,762	0,705
160,369	0,705
160,756	0,704
161,356	0,703
161,953	0,703
162,543	0,701
163,320	0,701
163,902	0,701
164,469	0,702
165,041	0,702
165,608	0,702
165,970	0,701
166,725	0,701
167,279	0,702
167,831	0,701
168,192	0,698
168,729	0,698
169,459	0,697
169,988	0,698
170,515	0,698
171,045	0,698
171,569	0,698
172,083	0,698
172,598	0,697
173,116	0,698
173,622	0,697
174,125	0,697
174,634	0,697
175,130	0,697
175,631	0,696
176,122	0,695
176,440	0,693
176,931	0,693
177,590	0,693
178,076	0,692
178,553	0,693
179,027	0,692
179,507	0,692
179,819	0,692
180,291	0,692
180,756	0,691
181,384	0,691
181,857	0,690
182,319	0,690
182,776	0,689
183,229	0,689
183,524	0,688
184,126	0,687
184,568	0,686
185,012	0,686
185,450	0,686
185,885	0,686
186,318	0,686
186,748	0,686
187,027	0,686
187,602	0,685
188,030	0,684
188,452	0,683
188,872	0,684
189,290	0,684
189,706	0,684
190,124	0,683
190,550	0,682
190,817	0,680
191,374	0,680
191,780	0,681
192,188	0,681
192,593	0,679
192,999	0,679
193,400	0,679
193,661	0,682
194,201	0,682
194,601	0,683
194,996	0,683
195,391	0,682
195,783	0,681
196,174	0,681
196,564	0,679
196,954	0,679
197,207	0,678
197,731	0,679
198,118	0,679
198,503	0,679
198,753	0,678
199,270	0,679
199,652	0,678
200,031	0,678
200,280	0,677
200,791	0,677
201,168	0,678
201,543	0,677
201,918	0,677
202,293	0,676
202,536	0,675
203,035	0,675
203,406	0,674
203,774	0,673
204,138	0,673
204,504	0,672
204,863	0,671
205,223	0,670
205,580	0,670
205,932	0,669
206,284	0,669
206,629	0,669
206,970	0,669
207,306	0,668
207,636	0,668
207,848	0,667
208,278	0,667
208,592	0,666
208,790	0,665
209,193	0,665
209,486	0,664
209,775	0,664
210,060	0,663
210,332	0,663
210,606	0,663
210,783	0,663
211,146	0,663
211,410	0,664
211,674	0,664
211,939	0,663
212,201	0,662
212,460	0,661
212,719	0,660
212,974	0,660
213,228	0,660
213,473	0,660
213,711	0,659
213,925	0,658
214,128	0,657
214,321	0,656
214,496	0,655
214,672	0,655
214,859	0,654
215,051	0,654
215,255	0,653
215,430	0,652
215,426	0,651
215,256	0,650
215,150	0,649
215,070	0,649
215,288	0,649
215,550	0,648
215,784	0,649
216,323	0,649
216,717	0,648
216,972	0,646
217,346	0,645
217,837	0,645
218,195	0,643
218,543	0,642
218,881	0,641
219,216	0,640
219,541	0,639
219,748	0,637
220,174	0,637
220,491	0,637
220,682	0,636
221,086	0,636
221,280	0,635
221,676	0,635
221,965	0,634
222,247	0,633
222,433	0,629
222,812	0,629
223,088	0,628
223,268	0,626
223,635	0,627
223,905	0,626
224,171	0,626
224,437	0,626
224,701	0,626
224,870	0,625
225,218	0,624
225,474	0,624
225,728	0,623
225,980	0,623
226,231	0,622
226,389	0,620
226,726	0,619
226,971	0,618
227,214	0,617
227,461	0,614
227,700	0,612
227,943	0,611
228,181	0,610
228,417	0,609
228,651	0,608
228,885	0,607
229,120	0,606
229,270	0,605
229,583	0,605
229,811	0,604
230,040	0,603
230,186	0,603
230,411	0,602
230,634	0,601
230,858	0,600
231,079	0,600
231,300	0,599
231,519	0,598
231,737	0,598
231,957	0,598
232,173	0,597
232,388	0,597
232,602	0,597
232,816	0,596
233,028	0,596
233,240	0,596
233,451	0,595
233,660	0,595
233,871	0,595
234,078	0,595
234,285	0,595
234,491	0,594
234,767	0,594
234,971	0,593
235,175	0,594
235,378	0,593
235,582	0,593
235,785	0,593
235,986	0,593
236,119	0,593
236,387	0,593
236,586	0,593
236,786	0,593
236,985	0,593
237,112	0,593
237,376	0,594
237,574	0,595
237,770	0,596
237,963	0,595
238,089	0,596
238,348	0,596
238,540	0,595
238,731	0,595
238,921	0,594
239,110	0,594
239,299	0,594
239,423	0,594
239,678	0,594
239,800	0,593
240,052	0,593
240,179	0,593
240,428	0,593
240,613	0,592
240,797	0,592
240,916	0,592
241,163	0,592
241,281	0,594
241,525	0,594
241,643	0,594
241,823	0,595
242,066	0,595
242,244	0,595
242,422	0,595
242,599	0,594
242,778	0,594
242,955	0,593
243,130	0,592
243,306	0,592
243,479	0,592
243,653	0,592
243,827	0,592
244,000	0,591
244,172	0,591
244,343	0,591
244,514	0,591
244,683	0,590
244,853	0,591
244,963	0,592
245,188	0,592
245,296	0,592
245,519	0,592
245,629	0,593
245,851	0,593
246,015	0,593
246,178	0,593
246,283	0,592
246,502	0,592
246,662	0,592
246,822	0,592
246,926	0,592
247,142	0,592
247,300	0,591
247,458	0,590
247,615	0,590
247,771	0,591
247,928	0,590
248,029	0,591
248,237	0,591
248,391	0,592
248,544	0,596
248,645	0,598
248,850	0,598
248,949	0,598
249,100	0,598
249,250	0,598
249,399	0,597
249,549	0,597
249,697	0,598
249,844	0,599
249,991	0,600
250,137	0,599
