#gandolinium_turned_1000Ga
#T(K)        U(V)
95,896	0,653
95,999	0,652
96,102	0,652
96,202	0,652
96,308	0,651
96,408	0,651
96,474	0,652
96,609	0,652
96,709	0,654
96,773	0,653
96,908	0,653
97,007	0,652
97,106	0,650
97,205	0,650
97,302	0,651
97,400	0,650
97,496	0,650
97,594	0,650
97,691	0,651
97,755	0,652
97,924	0,652
98,105	0,651
98,258	0,648
98,683	0,648
99,106	0,646
99,605	0,646
100,183	0,646
100,601	0,646
101,561	0,646
102,339	0,645
103,162	0,645
104,050	0,645
104,938	0,644
105,845	0,645
106,773	0,645
107,759	0,645
108,386	0,644
109,398	0,644
110,733	0,644
111,729	0,644
112,380	0,643
113,729	0,643
114,729	0,643
115,740	0,643
116,734	0,642
117,724	0,642
118,384	0,643
119,708	0,643
120,682	0,643
121,650	0,644
122,616	0,643
123,580	0,644
124,564	0,644
125,194	0,643
126,525	0,643
127,497	0,643
128,485	0,643
129,452	0,641
130,414	0,642
131,036	0,643
132,322	0,643
133,267	0,643
134,207	0,642
135,142	0,642
136,070	0,641
136,993	0,642
137,912	0,642
138,825	0,642
139,415	0,642
140,633	0,642
141,530	0,641
142,109	0,642
143,316	0,642
144,192	0,643
144,758	0,642
145,943	0,641
146,800	0,640
147,652	0,640
148,496	0,640
149,350	0,639
150,195	0,639
151,033	0,639
151,579	0,640
152,397	0,640
153,491	0,640
154,013	0,642
155,093	0,642
155,913	0,643
156,702	0,643
157,210	0,644
158,266	0,644
159,038	0,644
159,805	0,645
160,567	0,645
161,324	0,645
162,077	0,645
162,564	0,644
163,567	0,644
164,306	0,644
165,038	0,645
165,768	0,645
166,494	0,644
167,214	0,645
167,936	0,644
168,657	0,644
169,365	0,645
169,823	0,645
170,770	0,645
171,466	0,645
172,158	0,645
172,846	0,645
173,531	0,645
174,222	0,645
174,900	0,644
175,585	0,645
176,022	0,644
176,930	0,644
177,595	0,644
178,257	0,644
178,913	0,643
179,351	0,643
180,004	0,643
180,900	0,642
181,546	0,642
182,186	0,642
182,835	0,643
183,471	0,643
184,098	0,643
184,720	0,642
185,350	0,643
185,967	0,643
186,588	0,644
187,198	0,643
187,593	0,644
188,406	0,645
189,005	0,645
189,600	0,645
189,984	0,646
190,774	0,646
191,151	0,645
191,935	0,645
192,507	0,645
193,081	0,644
193,654	0,644
194,223	0,645
194,786	0,646
195,344	0,646
195,898	0,646
196,453	0,647
197,011	0,647
197,367	0,648
198,100	0,647
198,450	0,646
199,173	0,646
199,705	0,646
200,232	0,645
200,571	0,644
201,255	0,644
201,751	0,644
202,249	0,644
202,565	0,644
203,218	0,644
203,530	0,643
204,171	0,643
204,643	0,643
205,112	0,643
205,593	0,643
206,064	0,643
206,532	0,644
207,000	0,644
207,465	0,643
207,931	0,644
208,230	0,643
208,844	0,643
209,295	0,643
209,740	0,643
210,192	0,642
210,640	0,642
210,933	0,645
211,391	0,646
212,024	0,646
212,491	0,648
212,792	0,650
213,408	0,650
213,865	0,651
214,154	0,646
214,748	0,646
215,183	0,645
215,632	0,645
216,064	0,645
216,490	0,644
216,913	0,644
217,333	0,644
217,760	0,644
218,032	0,645
218,591	0,645
219,011	0,645
219,422	0,644
219,835	0,645
220,246	0,643
220,654	0,642
221,066	0,642
221,468	0,643
221,878	0,643
222,286	0,644
222,688	0,644
223,086	0,644
223,483	0,644
223,878	0,643
224,134	0,647
224,664	0,648
225,058	0,646
225,311	0,645
225,841	0,644
226,231	0,643
226,621	0,643
227,003	0,643
227,259	0,644
227,638	0,646
228,149	0,648
228,393	0,644
228,908	0,644
229,279	0,645
229,650	0,645
230,020	0,646
230,388	0,647
230,760	0,647
230,996	0,647
231,485	0,646
231,853	0,646
232,216	0,647
232,574	0,647
232,927	0,648
233,277	0,649
233,635	0,649
233,981	0,649
234,334	0,649
234,677	0,649
235,018	0,649
235,240	0,650
235,577	0,650
236,030	0,650
236,362	0,651
236,692	0,651
237,019	0,650
237,347	0,651
237,673	0,651
237,992	0,652
238,308	0,651
238,516	0,652
238,937	0,653
239,247	0,654
239,557	0,654
239,867	0,654
240,170	0,654
240,472	0,654
240,773	0,654
241,077	0,654
241,378	0,654
241,672	0,654
241,967	0,655
242,259	0,656
242,447	0,656
242,838	0,655
243,022	0,655
243,407	0,656
243,690	0,656
243,974	0,657
244,158	0,657
244,535	0,657
244,812	0,657
245,091	0,657
245,366	0,656
245,639	0,656
245,816	0,657
246,181	0,657
246,355	0,657
246,715	0,657
246,980	0,657
247,151	0,663
247,505	0,665
247,767	0,666
247,936	0,664
248,191	0,665
248,538	0,665
248,790	0,665
249,044	0,666
249,293	0,666
249,541	0,666
249,787	0,666
250,031	0,666
250,272	0,666
250,510	0,666
250,747	0,666
250,982	0,666
251,214	0,666
251,446	0,666
251,675	0,666
251,904	0,665
252,131	0,666
252,355	0,666
252,577	0,666
252,799	0,665
253,016	0,665
253,232	0,666
253,447	0,666
253,586	0,667
253,872	0,667
254,081	0,667
254,289	0,667
254,423	0,668
254,703	0,668
254,907	0,668
255,041	0,667
255,315	0,668
255,514	0,669
255,714	0,669
255,913	0,669
256,041	0,668
256,307	0,668
256,501	0,668
256,695	0,668
256,888	0,668
257,079	0,669
257,270	0,668
257,393	0,668
257,648	0,668
257,837	0,668
258,024	0,668
258,209	0,668
258,392	0,667
258,576	0,667
258,757	0,667
258,939	0,667
259,118	0,666
259,234	0,666
259,475	0,667
259,650	0,666
259,827	0,667
260,000	0,666
260,175	0,666
260,347	0,667
260,519	0,667
260,687	0,667
260,799	0,667
261,024	0,667
261,192	0,667
261,359	0,669
261,466	0,670
261,688	0,670
261,851	0,671
262,012	0,671
262,117	0,670
262,333	0,669
262,490	0,668
262,648	0,667
262,802	0,666
262,956	0,667
263,056	0,668
263,263	0,668
263,416	0,667
263,568	0,666
263,718	0,666
263,868	0,667
264,017	0,668
264,165	0,668
264,312	0,668
264,459	0,668
264,606	0,667
264,751	0,667
264,846	0,667
265,040	0,667
265,184	0,668
265,326	0,668
265,471	0,669
265,611	0,669
265,704	0,669
265,893	0,670
266,033	0,671
266,171	0,668
266,310	0,668
266,447	0,668
266,584	0,668
266,673	0,668
266,855	0,669
266,990	0,669
267,125	0,669
267,259	0,669
267,393	0,668
267,526	0,668
267,658	0,667
267,790	0,666
267,920	0,666
268,006	0,667
268,181	0,667
268,310	0,666
268,396	0,666
268,568	0,667
268,695	0,668
268,821	0,669
268,905	0,669
269,074	0,670
269,200	0,670
269,324	0,670
269,447	0,670
269,571	0,669
269,694	0,669
269,817	0,669
269,938	0,668
270,061	0,668
270,182	0,668
270,302	0,669
270,379	0,669
270,540	0,669
270,659	0,671
270,778	0,672
270,852	0,672
271,010	0,671
271,126	0,670
271,241	0,671
271,316	0,671
271,470	0,671
271,584	0,671
271,696	0,672
271,769	0,673
271,919	0,673
272,033	0,673
272,144	0,673
272,217	0,672
272,365	0,672
272,435	0,671
272,583	0,672
272,690	0,672
272,799	0,671
272,905	0,670
273,012	0,667
273,117	0,668
273,222	0,668
273,326	0,668
273,431	0,669
273,533	0,670
273,636	0,670
273,738	0,671
273,839	0,671
273,939	0,671
274,039	0,671
274,140	0,671
274,238	0,670
274,338	0,669
274,437	0,668
274,532	0,669
274,597	0,668
274,694	0,669
274,823	0,669
274,886	0,669
275,014	0,670
275,075	0,670
275,204	0,670
275,296	0,670
275,393	0,668
275,488	0,667
275,548	0,665
275,676	0,665
275,771	0,665
275,833	0,664
275,962	0,663
276,053	0,662
276,148	0,660
276,237	0,658
276,334	0,657
276,430	0,660
276,486	0,659
276,576	0,661
276,701	0,662
276,788	0,666
276,881	0,666
276,937	0,665
277,063	0,665
277,152	0,665
277,242	0,666
277,329	0,668
277,418	0,667
277,508	0,668
277,595	0,669
277,681	0,668
277,769	0,668
277,856	0,667
277,913	0,667
278,028	0,666
278,113	0,666
278,197	0,667
278,278	0,667
278,366	0,667
278,448	0,668
278,502	0,669
278,602	0,668
278,701	0,669
278,778	0,669
278,828	0,668
278,909	0,668
279,019	0,668
279,099	0,668
279,178	0,668
279,259	0,669
279,334	0,669
279,386	0,667
279,492	0,667
279,569	0,667
279,646	0,669
279,723	0,669
279,799	0,669
279,874	0,669
279,950	0,669
280,025	0,668
280,073	0,669
280,174	0,669
280,247	0,670
280,321	0,669
280,394	0,668
280,442	0,669
280,538	0,669
280,611	0,669
280,682	0,673
280,753	0,674
280,823	0,677
280,893	0,679
280,963	0,679
281,009	0,678
281,101	0,678
281,145	0,678
281,237	0,678
281,306	0,678
281,374	0,678
281,441	0,679
281,507	0,679
281,551	0,679
281,640	0,679
281,705	0,679
281,771	0,678
281,836	0,678
281,879	0,678
281,965	0,679
282,006	0,679
282,094	0,679
282,133	0,679
282,218	0,679
282,260	0,679
282,344	0,679
282,383	0,679
282,466	0,679
282,529	0,679
282,590	0,679
282,628	0,678
282,689	0,677
282,770	0,677
282,830	0,676
282,868	0,676
282,926	0,677
283,005	0,677
283,066	0,678
283,124	0,677
283,180	0,677
283,238	0,676
283,275	0,676
283,351	0,676
283,408	0,677
283,446	0,677
283,521	0,677
283,576	0,678
283,632	0,678
283,668	0,678
283,742	0,678
283,797	0,678
283,833	0,677
283,905	0,677
283,959	0,677
284,013	0,677
284,066	0,677
284,119	0,677
284,153	0,677
284,223	0,677
284,276	0,677
284,329	0,677
284,361	0,677
284,431	0,677
284,482	0,677
284,533	0,677
284,566	0,677
284,633	0,677
284,666	0,677
284,733	0,677
284,783	0,676
284,833	0,676
284,881	0,677
284,930	0,677
284,979	0,676
285,028	0,675
285,060	0,674
285,125	0,674
285,173	0,674
285,221	0,674
285,252	0,674
285,315	0,674
285,361	0,674
285,393	0,675
285,455	0,675
285,485	0,676
285,548	0,676
285,593	0,675
285,640	0,675
285,668	0,675
285,714	0,675
285,775	0,674
285,820	0,674
285,865	0,674
285,909	0,675
285,954	0,676
285,982	0,678
286,040	0,678
286,084	0,679
286,127	0,678
286,171	0,678
286,214	0,678
286,257	0,678
286,300	0,679
286,341	0,679
286,370	0,679
286,412	0,680
286,469	0,680
286,510	0,680
286,552	0,681
286,594	0,681
286,634	0,681
286,677	0,681
286,718	0,682
286,759	0,682
286,784	0,681
286,839	0,681
286,878	0,681
286,919	0,680
286,959	0,679
286,999	0,679
287,025	0,679
287,077	0,679
287,103	0,678
287,156	0,678
287,195	0,677
287,234	0,677
287,272	0,676
287,312	0,676
287,335	0,678
287,386	0,678
287,424	0,678
287,462	0,678
287,499	0,678
287,536	0,679
287,574	0,679
287,611	0,679
287,648	0,679
287,672	0,678
287,723	0,678
287,759	0,677
287,795	0,676
287,832	0,676
287,867	0,675
287,903	0,675
287,939	0,674
287,974	0,674
288,010	0,674
288,044	0,674
288,079	0,673
288,115	0,673
288,150	0,672
288,184	0,672
288,219	0,672
288,254	0,671
288,289	0,672
288,323	0,672
288,358	0,673
288,391	0,672
288,425	0,672
288,460	0,672
288,493	0,672
288,526	0,672
288,548	0,672
288,594	0,672
288,627	0,671
288,661	0,671
288,693	0,672
288,715	0,672
288,759	0,672
288,781	0,672
288,824	0,672
288,858	0,671
288,890	0,672
288,923	0,671
288,955	0,671
288,988	0,672
289,019	0,672
289,051	0,672
289,084	0,671
289,115	0,670
289,148	0,670
289,180	0,669
289,210	0,670
289,242	0,671
289,263	0,670
289,305	0,670
289,336	0,670
289,368	0,670
289,398	0,671
289,429	0,671
289,450	0,672
289,481	0,672
289,524	0,672
289,554	0,673
289,584	0,673
289,615	0,674
289,645	0,675
289,675	0,674
289,707	0,674
289,736	0,675
289,757	0,676
289,797	0,675
289,827	0,673
289,857	0,672
289,887	0,672
289,917	0,672
289,937	0,673
289,977	0,673
290,007	0,672
290,036	0,673
290,055	0,673
290,086	0,674
290,124	0,674
290,153	0,673
290,173	0,673
290,211	0,673
290,231	0,673
290,270	0,673
290,301	0,673
290,328	0,673
290,357	0,673
290,387	0,672
290,416	0,672
290,445	0,672
290,474	0,673
290,503	0,673
290,532	0,673
290,561	0,673
290,591	0,673
290,621	0,672
290,650	0,672
290,678	0,672
290,708	0,671
290,737	0,671
290,766	0,670
290,785	0,669
290,825	0,669
290,844	0,669
290,872	0,669
290,911	0,669
290,939	0,670
290,970	0,670
290,998	0,670
291,028	0,669
291,056	0,668
291,085	0,667
291,114	0,668
291,142	0,669
291,171	0,669
291,189	0,668
291,228	0,667
291,256	0,667
291,284	0,666
291,313	0,666
291,343	0,666
291,370	0,665
291,389	0,665
291,426	0,665
291,453	0,665
291,483	0,665
291,511	0,665
291,539	0,663
291,567	0,662
291,595	0,662
291,623	0,663
291,650	0,664
291,678	0,663
291,696	0,663
291,733	0,663
291,751	0,663
291,779	0,663
291,816	0,663
291,843	0,662
291,870	0,661
291,898	0,661
291,925	0,660
291,953	0,660
291,980	0,661
292,007	0,661
292,034	0,662
292,060	0,662
292,078	0,661
292,114	0,661
292,140	0,661
292,168	0,661
292,194	0,661
292,220	0,661
292,237	0,661
292,274	0,661
292,300	0,661
292,327	0,661
292,353	0,661
292,379	0,660
292,405	0,660
292,431	0,661
292,458	0,661
292,475	0,661
292,501	0,660
292,536	0,660
292,562	0,661
292,588	0,661
292,614	0,661
292,639	0,661
292,664	0,661
292,691	0,661
292,716	0,660
292,742	0,660
292,767	0,661
292,791	0,661
292,809	0,660
292,843	0,660
292,869	0,659
292,894	0,659
292,919	0,659
292,944	0,659
292,970	0,659
292,994	0,659
293,019	0,659
293,044	0,660
293,070	0,661
293,094	0,661
293,110	0,661
293,143	0,661
293,168	0,662
293,193	0,663
293,209	0,662
293,242	0,661
293,267	0,661
293,291	0,661
293,307	0,661
293,340	0,661
293,363	0,661
293,389	0,661
293,413	0,668
293,428	0,667
293,462	0,667
293,485	0,665
293,510	0,663
293,533	0,662
293,558	0,662
293,582	0,662
293,607	0,663
293,622	0,663
293,655	0,663
293,677	0,664
293,701	0,663
293,724	0,663
293,748	0,662
293,772	0,662
293,796	0,662
293,820	0,663
293,835	0,663
293,866	0,662
293,889	0,663
293,913	0,663
293,928	0,663
293,960	0,663
293,984	0,663
294,007	0,663
294,029	0,663
294,053	0,663
294,076	0,663
294,090	0,662
294,121	0,662
294,137	0,661
294,168	0,661
294,191	0,661
294,213	0,662
294,237	0,662
294,260	0,663
294,282	0,663
294,305	0,663
294,328	0,663
294,350	0,663
294,365	0,663
294,396	0,663
294,410	0,665
294,440	0,665
294,455	0,664
294,486	0,664
294,507	0,664
294,530	0,664
294,552	0,664
294,575	0,663
294,597	0,663
294,611	0,664
294,641	0,665
294,662	0,666
294,684	0,665
294,707	0,665
294,730	0,664
294,750	0,662
294,772	0,663
294,793	0,663
294,815	0,663
294,836	0,663
294,858	0,663
294,879	0,663
294,893	0,663
294,923	0,664
294,943	0,664
294,964	0,664
294,979	0,663
295,008	0,663
295,027	0,664
295,048	0,664
295,070	0,664
295,091	0,664
295,104	0,665
295,133	0,665
295,153	0,666
295,175	0,666
295,194	0,666
295,216	0,667
295,236	0,667
295,256	0,667
295,277	0,667
295,297	0,666
295,318	0,667
295,338	0,667
295,351	0,667
295,378	0,667
295,398	0,666
295,419	0,666
295,438	0,666
295,457	0,665
295,477	0,664
295,490	0,664
295,517	0,664
295,537	0,664
295,557	0,664
295,577	0,663
295,589	0,664
295,615	0,664
295,634	0,663
295,647	0,662
295,672	0,662
295,692	0,662
295,711	0,661
295,724	0,662
295,750	0,662
295,762	0,663
295,788	0,663
295,807	0,663
295,826	0,664
295,845	0,666
295,857	0,666
295,882	0,665
295,902	0,663
295,920	0,661
295,932	0,663
295,957	0,663
295,975	0,663
295,994	0,663
296,012	0,663
296,030	0,662
296,049	0,662
296,067	0,662
296,085	0,662
296,104	0,662
296,122	0,662
296,139	0,661
296,158	0,661
296,176	0,661
296,194	0,661
296,213	0,661
296,230	0,661
296,247	0,662
296,259	0,662
296,284	0,662
296,300	0,662
296,319	0,662
296,331	0,662
296,354	0,662
296,372	0,662
296,390	0,661
296,407	0,661
296,425	0,663
296,441	0,662
296,454	0,662
296,477	0,663
296,488	0,663
296,505	0,663
296,528	0,664
296,546	0,664
296,564	0,663
296,574	0,664
296,598	0,664
296,608	0,664
296,632	0,664
296,649	0,664
296,666	0,664
296,677	0,663
296,699	0,663
296,716	0,664
296,733	0,664
296,750	0,663
296,767	0,664
296,785	0,664
296,795	0,663
296,817	0,663
296,828	0,663
296,850	0,662
296,867	0,662
296,883	0,661
296,900	0,661
296,916	0,660
296,932	0,660
296,949	0,661
296,965	0,661
296,981	0,661
296,998	0,661
297,007	0,661
297,030	0,661
297,046	0,661
297,062	0,661
297,072	0,662
297,094	0,662
297,109	0,663
297,120	0,664
297,141	0,663
297,157	0,663
297,173	0,664
297,183	0,665
297,204	0,665
297,220	0,665
297,234	0,664
297,251	0,663
297,266	0,663
297,276	0,662
297,297	0,662
297,312	0,662
297,327	0,661
297,342	0,661
297,358	0,661
297,373	0,662
297,382	0,661
297,402	0,661
297,417	0,661
297,432	0,661
297,447	0,661
297,457	0,660
297,476	0,660
297,491	0,660
297,501	0,659
297,520	0,659
297,535	0,659
297,550	0,659
297,564	0,659
297,579	0,659
297,593	0,659
297,608	0,660
297,622	0,660
297,635	0,661
297,650	0,662
297,664	0,662
297,679	0,662
297,692	0,662
297,706	0,662
297,720	0,661
297,735	0,660
297,749	0,659
297,758	0,661
297,777	0,661
297,790	0,663
297,804	0,664
297,814	0,663
297,834	0,663
297,847	0,664
297,862	0,664
297,871	0,664
297,885	0,664
297,902	0,663
